#DataThief C:\Users\erick\OneDrive\Documents\ucsd\Postdoc\research\thermal camera\BFS-U3-16S2M_QE.png Wednesday 22-Feb-2023 12:12:16 PM
Wavelength (nm),Quantum efficiency (%)
300.00, 2.057
301.154, 2.253
301.539, 2.383
301.924, 2.383
302.309, 2.383
302.693, 2.514
303.078, 2.775
303.463, 2.841
303.847, 2.906
304.232, 3.102
304.617, 3.102
305.002, 3.232
305.387, 3.363
305.771, 3.428
306.156, 3.624
306.541, 3.755
306.926, 3.819
307.31, 3.951
307.694, 3.951
308.08, 4.081
308.465, 4.212
308.849, 4.277
309.234, 4.472
309.619, 4.604
310.004, 4.669
310.388, 4.93
310.773, 4.996
311.158, 5.061
311.543, 5.518
311.927, 5.583
312.312, 5.714
312.697, 5.843
313.082, 5.91
313.466, 6.236
313.851, 6.367
314.236, 6.432
314.621, 6.759
315.005, 6.823
315.39, 7.085
315.775, 7.281
316.16, 7.346
316.544, 7.673
316.929, 7.804
317.314, 7.869
317.698, 8.13
318.083, 8.195
318.468, 8.326
318.853, 8.522
319.238, 8.587
319.621, 9.044
320.007, 9.175
320.392, 9.24
320.777, 9.371
321.161, 9.436
321.546, 9.632
321.931, 9.827
322.316, 9.893
322.7, 10.024
323.085, 10.154
323.47, 10.35
323.855, 10.742
324.24, 10.807
324.624, 10.938
325.009, 11.134
325.394, 11.199
325.779, 11.526
326.163, 11.656
326.548, 11.722
326.933, 12.113
327.318, 12.244
327.702, 12.309
328.087, 12.505
328.472, 12.571
328.857, 12.897
329.241, 12.897
329.626, 12.962
330.011, 13.354
330.396, 13.484
330.78, 13.55
331.165, 13.746
331.55, 13.811
331.935, 13.942
332.319, 14.072
332.704, 14.138
333.089, 14.399
333.474, 14.464
333.858, 14.53
334.242, 14.791
334.628, 14.855
335.013, 14.987
335.397, 15.183
335.782, 15.248
336.167, 15.444
336.552, 15.509
336.936, 15.573
337.321, 15.835
337.706, 15.901
338.091, 16.162
338.475, 16.227
338.859, 16.293
339.245, 16.554
339.63, 16.685
340.014, 16.75
340.399, 17.076
340.784, 17.142
341.169, 17.468
341.553, 17.729
341.938, 17.795
342.323, 18.186
342.708, 18.317
343.092, 18.382
343.476, 18.839
343.862, 18.905
344.246, 19.101
344.631, 19.362
345.016, 19.427
345.401, 19.884
345.786, 19.884
346.17, 19.95
346.555, 20.537
346.94, 20.603
347.325, 20.733
347.71, 21.125
348.094, 21.19
348.479, 21.517
348.863, 21.647
349.249, 21.713
349.633, 22.17
350.018, 22.3
350.403, 22.366
350.788, 22.496
351.172, 22.627
351.557, 22.823
351.942, 22.952
352.327, 23.019
352.71, 23.149
353.096, 23.215
353.48, 23.28
353.866, 23.541
354.25, 23.607
354.635, 23.867
355.02, 23.998
355.405, 24.064
355.789, 24.194
356.174, 24.26
356.559, 24.325
356.944, 24.585
357.328, 24.651
357.713, 24.782
358.098, 24.978
358.483, 25.043
358.867, 25.304
359.252, 25.37
359.637, 25.5
360.022, 25.631
360.406, 25.696
360.791, 25.892
361.176, 26.023
361.561, 26.088
361.944, 26.48
362.33, 26.609
362.714, 26.676
363.1, 26.871
363.484, 26.937
363.869, 27.068
364.254, 27.198
364.639, 27.263
365.023, 27.525
365.408, 27.589
365.793, 27.655
366.178, 28.047
366.562, 28.112
366.947, 28.242
367.332, 28.439
367.717, 28.504
368.101, 28.831
368.486, 28.896
368.871, 29.027
369.256, 29.157
369.64, 29.223
370.025, 29.418
370.41, 29.876
370.795, 29.94
371.18, 30.659
371.564, 30.79
371.948, 30.855
372.334, 31.639
372.718, 31.704
373.103, 31.9
373.488, 32.488
373.873, 32.553
374.258, 33.271
374.642, 33.402
375.027, 33.467
375.412, 34.251
375.797, 34.316
376.181, 34.512
376.565, 35.1
376.951, 35.165
377.336, 35.883
377.72, 36.014
378.105, 36.079
378.49, 36.928
378.875, 37.059
379.259, 37.124
379.644, 37.777
380.029, 38.038
380.414, 38.169
380.798, 38.299
381.183, 38.365
381.568, 39.018
381.952, 39.213
382.337, 39.343
382.722, 39.605
383.107, 39.671
383.492, 40.062
383.876, 40.193
384.261, 40.258
384.646, 40.781
385.031, 40.976
385.415, 41.107
385.8, 41.367
386.185, 41.434
386.569, 41.694
386.954, 41.956
387.339, 42.021
387.724, 42.478
388.109, 42.478
388.492, 42.544
388.878, 43.131
389.263, 43.197
389.648, 43.393
390.032, 43.718
390.417, 43.784
390.802, 44.307
391.187, 44.437
391.571, 44.568
391.956, 44.764
392.341, 44.829
392.726, 44.96
393.11, 45.286
393.495, 45.351
393.88, 45.874
394.265, 46.07
394.65, 46.201
395.034, 46.331
395.419, 46.397
395.804, 46.527
396.189, 46.854
396.573, 46.919
396.958, 47.376
397.343, 47.376
397.728, 47.441
398.112, 47.898
398.496, 48.029
398.882, 48.16
399.267, 48.551
399.651, 48.617
400.036, 48.813
400.421, 48.943
400.806, 49.009
401.19, 49.27
401.575, 49.335
401.96, 49.466
402.345, 49.596
402.729, 49.662
403.114, 49.792
403.499, 49.858
403.884, 49.923
404.268, 50.119
404.653, 50.184
405.038, 50.249
405.423, 50.445
405.807, 50.511
406.192, 50.706
406.577, 50.837
406.962, 50.902
407.346, 51.229
407.73, 51.294
408.116, 51.425
408.501, 51.555
408.885, 51.621
409.27, 51.751
409.655, 51.882
410.04, 51.947
410.424, 52.078
410.809, 52.078
411.194, 52.143
411.579, 52.208
411.963, 52.274
412.347, 52.404
412.733, 52.404
413.117, 52.47
413.502, 52.535
413.887, 52.6
414.272, 52.666
414.657, 52.796
415.041, 52.796
415.426, 52.861
415.811, 52.927
416.196, 52.992
416.58, 53.188
416.964, 53.253
417.35, 53.319
417.734, 53.384
418.12, 53.449
418.504, 53.515
418.889, 53.58
419.274, 53.645
419.659, 53.776
420.043, 53.841
420.428, 53.906
420.813, 54.102
421.198, 54.168
421.581, 54.233
421.967, 54.429
422.351, 54.494
422.737, 54.69
423.121, 54.755
423.506, 54.886
423.891, 55.017
424.276, 55.082
424.66, 55.212
425.045, 55.278
425.43, 55.343
425.815, 55.604
426.199, 55.67
426.584, 55.8
426.968, 55.8
427.354, 55.865
427.738, 55.931
428.123, 56.061
428.508, 56.127
428.893, 56.323
429.277, 56.388
429.662, 56.453
430.047, 56.78
430.432, 56.845
430.815, 56.976
431.201, 57.106
431.585, 57.172
431.971, 57.367
432.355, 57.367
432.74, 57.433
433.125, 57.694
433.51, 57.825
433.894, 57.89
434.279, 58.02
434.664, 58.086
435.049, 58.282
435.433, 58.412
435.818, 58.478
436.203, 58.738
436.588, 58.804
436.972, 58.935
437.357, 59.065
437.742, 59.131
438.127, 59.261
438.511, 59.457
438.896, 59.522
439.281, 59.784
439.666, 59.849
440.05, 59.98
440.435, 59.98
440.819, 59.98
441.205, 60.11
441.589, 60.175
441.974, 60.241
442.359, 60.437
442.744, 60.437
443.129, 60.502
443.513, 60.633
443.898, 60.633
444.283, 60.698
444.668, 60.763
445.052, 60.829
445.437, 60.959
445.822, 61.024
446.207, 61.09
446.591, 61.22
446.976, 61.22
447.361, 61.351
447.746, 61.416
448.13, 61.416
448.515, 61.612
448.9, 61.677
449.285, 61.742
449.669, 61.808
450.054, 61.873
450.439, 61.939
450.823, 62.004
451.208, 62.069
451.593, 62.135
451.978, 62.2
452.363, 62.265
452.746, 62.331
453.132, 62.396
453.517, 62.461
453.902, 62.526
454.286, 62.592
454.671, 62.657
455.056, 62.722
455.441, 62.788
455.825, 62.853
456.21, 62.918
456.595, 62.984
456.98, 63.049
457.363, 63.049
457.749, 63.114
458.134, 63.18
458.519, 63.245
458.903, 63.31
459.288, 63.375
459.673, 63.441
460.058, 63.571
460.442, 63.637
460.827, 63.702
461.212, 63.767
461.597, 63.833
461.98, 63.898
462.366, 63.963
462.751, 64.029
463.136, 64.094
463.521, 64.159
463.905, 64.355
464.29, 64.355
464.675, 64.355
465.06, 64.551
465.444, 64.616
465.829, 64.682
466.214, 64.812
466.599, 64.812
466.983, 64.877
467.367, 64.943
467.753, 65.008
468.138, 65.139
468.522, 65.204
468.907, 65.269
469.292, 65.335
469.677, 65.4
470.061, 65.4
470.446, 65.4
470.831, 65.4
471.216, 65.465
471.6, 65.465
471.984, 65.531
472.37, 65.596
472.755, 65.596
473.139, 65.596
473.524, 65.596
473.909, 65.596
474.294, 65.596
474.678, 65.596
475.063, 65.596
475.448, 65.596
475.833, 65.596
476.217, 65.596
476.601, 65.661
476.987, 65.726
477.371, 65.726
477.756, 65.792
478.141, 65.792
478.526, 65.792
478.911, 65.792
479.295, 65.792
479.68, 65.792
480.065, 65.792
480.45, 65.792
480.834, 65.792
481.219, 65.792
481.604, 65.792
481.988, 65.792
482.373, 65.792
482.758, 65.792
483.143, 65.792
483.528, 65.792
483.912, 65.792
484.297, 65.792
484.682, 65.792
485.067, 65.792
485.451, 65.792
485.835, 65.792
486.221, 65.792
486.605, 65.792
486.991, 65.792
487.375, 65.792
487.76, 65.792
488.145, 65.792
488.53, 65.726
488.914, 65.726
489.299, 65.726
489.684, 65.662
490.069, 65.726
490.453, 65.726
490.838, 65.792
491.223, 65.792
491.608, 65.792
491.992, 65.792
492.377, 65.792
492.762, 65.792
493.147, 65.792
493.531, 65.792
493.916, 65.792
494.301, 65.792
494.686, 65.858
495.07, 65.858
495.455, 65.858
495.839, 65.858
496.225, 65.923
496.609, 65.923
496.994, 65.988
497.379, 65.988
497.764, 66.053
498.148, 66.053
498.533, 66.119
498.918, 66.119
499.303, 66.119
499.687, 66.119
500.072, 66.119
500.457, 66.119
500.842, 66.119
501.226, 66.119
501.611, 66.054
501.996, 66.054
502.381, 65.988
502.765, 65.988
503.15, 65.988
503.535, 65.988
503.92, 65.923
504.304, 65.858
504.689, 65.858
505.074, 65.858
505.459, 65.858
505.843, 65.792
506.228, 65.792
506.613, 65.792
506.998, 65.726
507.382, 65.726
507.767, 65.662
508.152, 65.597
508.537, 65.597
508.921, 65.597
509.306, 65.597
509.69, 65.597
510.076, 65.597
510.461, 65.531
510.845, 65.531
511.23, 65.531
511.615, 65.466
512.0, 65.466
512.384, 65.466
512.769, 65.466
513.154, 65.401
513.539, 65.401
513.923, 65.401
514.308, 65.401
514.693, 65.401
515.078, 65.401
515.462, 65.401
515.847, 65.401
516.232, 65.401
516.617, 65.401
517.001, 65.336
517.386, 65.336
517.771, 65.336
518.156, 65.336
518.54, 65.27
518.925, 65.27
519.31, 65.27
519.694, 65.27
520.079, 65.27
520.464, 65.27
520.849, 65.336
521.234, 65.336
521.617, 65.401
522.003, 65.401
522.388, 65.466
522.773, 65.466
523.157, 65.466
523.542, 65.466
523.927, 65.532
524.312, 65.532
524.696, 65.532
525.081, 65.728
525.466, 65.793
525.851, 65.793
526.234, 65.793
526.62, 65.793
527.005, 65.923
527.39, 65.923
527.774, 65.923
528.159, 65.923
528.544, 65.988
528.929, 65.988
529.313, 66.054
529.698, 66.119
530.083, 66.119
530.468, 66.119
530.851, 66.119
531.237, 66.25
531.621, 66.315
532.007, 66.315
532.391, 66.315
532.776, 66.315
533.161, 66.315
533.546, 66.381
533.931, 66.446
534.315, 66.446
534.7, 66.446
535.085, 66.511
535.47, 66.511
535.854, 66.577
536.238, 66.642
536.624, 66.642
537.009, 66.642
537.393, 66.642
537.778, 66.706
538.163, 66.773
538.548, 66.838
538.932, 66.838
539.317, 66.838
539.702, 66.838
540.087, 66.838
540.471, 66.838
540.855, 66.838
541.241, 66.838
541.626, 66.838
542.01, 66.838
542.395, 66.773
542.78, 66.773
543.165, 66.706
543.549, 66.706
543.934, 66.706
544.319, 66.642
544.704, 66.642
545.088, 66.577
545.472, 66.512
545.858, 66.512
546.242, 66.512
546.627, 66.512
547.012, 66.446
547.397, 66.381
547.782, 66.381
548.166, 66.381
548.551, 66.316
548.936, 66.316
549.321, 66.316
549.705, 66.316
550.09, 66.316
550.475, 66.316
550.859, 66.316
551.244, 66.316
551.629, 66.316
552.014, 66.25
552.399, 66.25
552.783, 66.25
553.168, 66.251
553.553, 66.251
553.938, 66.251
554.322, 66.251
554.706, 66.251
555.092, 66.251
555.476, 66.251
555.861, 66.251
556.246, 66.251
556.631, 66.251
557.016, 66.251
557.401, 66.251
557.785, 66.251
558.17, 66.251
558.555, 66.251
558.94, 66.251
559.324, 66.251
559.709, 66.251
560.094, 66.251
560.479, 66.251
560.863, 66.251
561.248, 66.251
561.633, 66.251
562.018, 66.251
562.402, 66.251
562.787, 66.251
563.172, 66.251
563.557, 66.251
563.94, 66.251
564.326, 66.251
564.71, 66.251
565.096, 66.316
565.48, 66.316
565.865, 66.316
566.25, 66.316
566.635, 66.316
567.019, 66.316
567.404, 66.316
567.789, 66.316
568.174, 66.316
568.558, 66.316
568.943, 66.316
569.328, 66.316
569.713, 66.316
570.097, 66.316
570.482, 66.316
570.867, 66.316
571.252, 66.251
571.636, 66.251
572.021, 66.186
572.406, 66.12
572.791, 66.12
573.175, 66.055
573.56, 65.99
573.944, 65.99
574.33, 65.99
574.714, 65.99
575.099, 65.924
575.484, 65.924
575.869, 65.859
576.253, 65.859
576.638, 65.859
577.023, 65.794
577.408, 65.794
577.792, 65.729
578.177, 65.663
578.562, 65.663
578.947, 65.663
579.331, 65.597
579.716, 65.597
580.101, 65.597
580.486, 65.533
580.871, 65.467
581.255, 65.467
581.64, 65.468
582.025, 65.468
582.41, 65.402
582.794, 65.402
583.179, 65.402
583.564, 65.337
583.948, 65.337
584.333, 65.337
584.718, 65.337
585.103, 65.272
585.488, 65.272
585.871, 65.272
586.257, 65.272
586.642, 65.272
587.027, 65.206
587.411, 65.141
587.796, 65.141
588.181, 65.141
588.565, 65.076
588.95, 65.076
589.335, 65.076
589.72, 65.011
590.105, 64.944
590.488, 64.944
590.874, 64.88
591.259, 64.815
591.644, 64.815
592.028, 64.684
592.413, 64.619
592.798, 64.619
593.183, 64.488
593.567, 64.423
593.952, 64.292
594.337, 64.292
594.722, 64.227
595.106, 64.097
595.491, 64.097
595.876, 64.031
596.261, 63.966
596.645, 63.901
597.03, 63.901
597.415, 63.835
597.8, 63.77
598.184, 63.705
598.569, 63.639
598.954, 63.573
599.339, 63.509
599.722, 63.444
600.108, 63.378
600.492, 63.378
600.878, 63.378
601.262, 63.182
601.647, 63.182
602.032, 63.182
602.417, 63.117
602.801, 63.052
603.186, 62.987
603.571, 62.921
603.956, 62.855
604.341, 62.725
604.725, 62.725
605.11, 62.66
605.495, 62.53
605.88, 62.53
606.264, 62.464
606.649, 62.399
607.034, 62.334
607.419, 62.334
607.803, 62.268
608.188, 62.203
608.573, 62.138
608.958, 62.138
609.342, 62.007
609.726, 62.007
610.112, 62.007
610.496, 61.877
610.881, 61.811
611.266, 61.811
611.651, 61.681
612.036, 61.616
612.42, 61.616
612.805, 61.55
613.19, 61.484
613.575, 61.484
613.959, 61.42
614.343, 61.42
614.729, 61.289
615.114, 61.289
615.498, 61.289
615.883, 61.158
616.268, 61.093
616.653, 60.963
617.037, 60.963
617.422, 60.897
617.807, 60.831
618.192, 60.831
618.576, 60.767
618.96, 60.767
619.346, 60.701
619.73, 60.571
620.115, 60.506
620.5, 60.44
620.885, 60.31
621.27, 60.244
621.654, 60.244
622.039, 59.983
622.424, 59.918
622.809, 59.787
623.193, 59.787
623.577, 59.722
623.963, 59.461
624.347, 59.461
624.732, 59.396
625.117, 59.265
625.502, 59.2
625.887, 59.069
626.271, 58.939
626.656, 58.873
627.041, 58.612
627.426, 58.547
627.811, 58.482
628.195, 58.351
628.58, 58.351
628.964, 58.22
629.35, 58.22
629.734, 58.155
630.119, 58.155
630.504, 58.155
630.889, 58.155
631.273, 58.155
631.658, 58.155
632.043, 58.155
632.428, 58.155
632.812, 58.155
633.197, 58.155
633.581, 58.155
633.967, 58.155
634.351, 58.155
634.736, 58.155
635.121, 58.155
635.506, 58.155
635.89, 58.155
636.275, 58.155
636.66, 58.155
637.045, 58.155
637.429, 58.155
637.814, 58.155
638.199, 58.155
638.584, 58.155
638.968, 58.155
639.353, 58.155
639.738, 58.155
640.123, 58.09
640.507, 57.894
640.892, 57.894
641.277, 57.829
641.662, 57.698
642.046, 57.633
642.431, 57.437
642.815, 57.371
643.201, 57.306
643.585, 57.176
643.97, 57.111
644.355, 56.98
644.74, 56.849
645.124, 56.784
645.509, 56.523
645.894, 56.458
646.279, 56.327
646.663, 56.196
647.048, 56.131
647.433, 56.066
647.818, 55.935
648.202, 55.935
648.587, 55.805
648.972, 55.805
649.357, 55.738
649.741, 55.478
650.126, 55.478
650.511, 55.413
650.896, 55.347
651.281, 55.347
651.665, 55.282
652.05, 55.282
652.435, 55.282
652.819, 55.086
653.204, 55.086
653.589, 55.087
653.974, 55.021
654.359, 54.956
654.742, 54.956
655.128, 54.891
655.513, 54.825
655.898, 54.825
656.282, 54.76
656.667, 54.694
657.052, 54.629
657.437, 54.629
657.821, 54.499
658.206, 54.434
658.591, 54.434
658.976, 54.303
659.359, 54.303
659.745, 54.238
660.13, 54.172
660.515, 54.172
660.899, 54.107
661.284, 54.042
661.669, 53.976
662.054, 53.911
662.438, 53.846
662.823, 53.781
663.208, 53.65
663.593, 53.65
663.976, 53.585
664.362, 53.52
664.746, 53.454
665.132, 53.389
665.516, 53.389
665.901, 53.389
666.286, 53.258
666.671, 53.193
667.055, 53.193
667.44, 53.063
667.825, 53.063
668.21, 52.932
668.593, 52.932
668.979, 52.867
669.363, 52.801
669.749, 52.736
670.133, 52.736
670.518, 52.475
670.903, 52.41
671.288, 52.343
671.672, 52.279
672.057, 52.214
672.442, 52.083
672.827, 52.018
673.211, 51.887
673.596, 51.626
673.98, 51.561
674.366, 51.43
674.751, 51.3
675.135, 51.234
675.52, 51.234
675.905, 51.234
676.29, 51.169
676.674, 50.908
677.059, 50.843
677.444, 50.777
677.829, 50.647
678.213, 50.581
678.597, 50.581
678.983, 50.516
679.367, 50.451
679.752, 50.19
680.137, 50.19
680.522, 50.124
680.907, 50.059
681.291, 49.994
681.676, 49.733
682.061, 49.667
682.446, 49.601
682.83, 49.601
683.215, 49.537
683.6, 49.406
683.984, 49.276
684.369, 49.21
684.754, 49.08
685.139, 49.014
685.524, 48.948
685.908, 48.688
686.293, 48.623
686.678, 48.557
687.063, 48.427
687.447, 48.427
687.831, 48.296
688.217, 48.231
688.601, 48.166
688.986, 47.97
689.371, 47.97
689.756, 47.904
690.141, 47.839
690.525, 47.774
690.91, 47.709
691.295, 47.643
691.68, 47.513
692.064, 47.382
692.449, 47.382
692.834, 47.317
693.219, 47.251
693.603, 47.186
693.988, 47.121
694.373, 47.056
694.758, 47.056
695.142, 46.859
695.527, 46.859
695.912, 46.794
696.297, 46.599
696.681, 46.599
697.066, 46.533
697.451, 46.468
697.835, 46.403
698.221, 46.272
698.605, 46.272
698.99, 46.207
699.375, 46.142
699.76, 46.076
700.144, 46.011
700.529, 45.946
700.914, 45.88
701.299, 45.684
701.683, 45.619
702.068, 45.619
702.453, 45.423
702.838, 45.358
703.222, 45.293
703.607, 45.227
703.992, 45.162
704.377, 45.032
704.761, 44.966
705.146, 44.901
705.531, 44.77
705.916, 44.77
706.3, 44.705
706.685, 44.575
707.07, 44.509
707.455, 44.444
707.839, 44.379
708.224, 44.313
708.609, 44.183
708.994, 44.117
709.378, 44.052
709.763, 44.052
710.148, 43.987
710.533, 43.855
710.917, 43.855
711.302, 43.791
711.687, 43.791
712.072, 43.791
712.456, 43.726
712.841, 43.595
713.226, 43.595
713.611, 43.595
713.995, 43.53
714.38, 43.465
714.765, 43.399
715.15, 43.334
715.534, 43.269
715.919, 43.269
716.304, 43.269
716.689, 43.138
717.073, 43.138
717.458, 43.073
717.843, 42.942
718.228, 42.942
718.612, 42.877
718.996, 42.877
719.382, 42.812
719.767, 42.746
720.151, 42.681
720.536, 42.616
720.921, 42.551
721.306, 42.484
721.69, 42.42
722.075, 42.224
722.46, 42.224
722.845, 42.159
723.23, 42.094
723.613, 42.028
723.999, 41.898
724.384, 41.898
724.769, 41.831
725.153, 41.767
725.538, 41.702
725.923, 41.571
726.308, 41.571
726.692, 41.506
727.077, 41.31
727.462, 41.31
727.847, 41.31
728.231, 41.114
728.616, 41.114
729.001, 40.984
729.386, 40.918
729.77, 40.853
730.155, 40.657
730.54, 40.527
730.925, 40.461
731.309, 40.2
731.694, 40.135
732.079, 40.069
732.464, 39.742
732.847, 39.678
733.233, 39.612
733.617, 39.351
734.003, 39.286
734.387, 39.025
734.772, 38.959
735.157, 38.829
735.542, 38.698
735.926, 38.633
736.311, 38.568
736.696, 38.306
737.081, 38.241
737.465, 37.98
737.85, 37.915
738.234, 37.784
738.62, 37.718
739.004, 37.654
739.389, 37.523
739.774, 37.327
740.159, 37.262
740.543, 37.131
740.928, 37.066
741.313, 37.001
741.698, 36.935
742.082, 36.87
742.467, 36.87
742.851, 36.87
743.237, 36.805
743.621, 36.674
744.006, 36.609
744.391, 36.478
744.776, 36.413
745.161, 36.347
745.545, 36.282
745.93, 36.217
746.315, 36.217
746.7, 36.021
747.084, 36.021
747.468, 35.956
747.854, 35.694
748.238, 35.694
748.623, 35.629
749.008, 35.629
749.393, 35.564
749.778, 35.564
750.162, 35.564
750.547, 35.499
750.932, 35.499
751.317, 35.434
751.701, 35.434
752.086, 35.367
752.471, 35.367
752.855, 35.367
753.24, 35.367
753.625, 35.303
754.01, 35.303
754.395, 35.303
754.779, 35.303
755.164, 35.238
755.549, 35.238
755.934, 35.238
756.318, 35.173
756.702, 35.173
757.088, 35.173
757.472, 35.173
757.857, 35.107
758.242, 35.107
758.627, 35.042
759.012, 35.042
759.396, 35.042
759.781, 34.976
760.166, 34.846
760.551, 34.846
760.935, 34.846
761.32, 34.65
761.705, 34.65
762.09, 34.52
762.474, 34.52
762.859, 34.52
763.244, 34.324
763.629, 34.324
764.013, 34.324
764.398, 33.932
764.783, 33.932
765.168, 33.867
765.552, 33.801
765.937, 33.736
766.322, 33.736
766.706, 33.736
767.091, 33.671
767.476, 33.41
767.861, 33.41
768.246, 33.343
768.631, 33.279
769.015, 33.214
769.4, 33.149
769.785, 33.083
770.17, 33.018
770.554, 32.822
770.939, 32.757
771.324, 32.626
771.709, 32.496
772.093, 32.43
772.478, 32.3
772.863, 32.234
773.248, 32.104
773.632, 31.972
774.017, 31.908
774.402, 31.777
774.787, 31.516
775.171, 31.451
775.556, 31.386
775.94, 31.32
776.326, 31.255
776.71, 30.994
777.095, 30.929
777.48, 30.863
777.865, 30.601
778.249, 30.537
778.634, 30.472
779.019, 30.406
779.404, 30.341
779.788, 30.21
780.173, 30.145
780.558, 30.014
780.943, 29.884
781.327, 29.884
781.712, 29.819
782.097, 29.688
782.482, 29.623
782.866, 29.427
783.251, 29.427
783.636, 29.362
784.021, 29.296
784.405, 29.231
784.79, 29.035
785.175, 28.97
